* Distortion data saved by REW V5.31.2
* Dated: Aug 6, 2024 5:37:05 PM
* Source: C:\Users\reclinarka\Documents\0 db.wav. Timing signal peak level -35.7 dBFS, measurement signal peak level -28.2 dBFS
* Format: 256k Log Swept Sine, 1 sweep using an acoustic timing reference
* Measurement: 0 db
* Frequency Step: 24 ppo
* Freq (Hz) H2 (%)
10.000 0.677
10.300 0.604
10.600 0.520
10.900 0.435
11.200 0.358
11.500 0.296
11.800 0.249
12.200 0.198
12.500 0.167
12.800 0.143
13.200 0.120
13.600 0.103
14.000 0.092
14.500 0.083
15.000 0.078
15.500 0.078
16.000 0.081
16.500 0.090
17.000 0.106
17.500 0.122
18.000 0.127
18.500 0.125
19.000 0.121
19.500 0.119
20.000 0.115
20.600 0.103
21.200 0.074
21.800 0.059
22.400 0.079
23.000 0.155
23.600 0.256
24.300 0.344
25.000 0.412
25.800 0.457
26.500 0.485
27.200 0.516
28.000 0.560
29.000 0.648
30.000 0.709
30.700 0.744
31.500 0.813
32.500 0.906
33.500 0.980
34.500 1.02
35.500 1.02
36.500 0.972
37.500 1.00
38.700 1.08
40.000 1.12
41.200 1.05
42.500 1.01
43.700 1.16
45.000 1.17
46.200 0.989
47.500 0.790
48.700 0.662
50.000 0.527
51.500 0.400
53.000 0.315
54.500 0.260
56.000 0.259
58.000 0.283
60.000 0.303
61.500 0.343
63.000 0.394
65.000 0.464
67.000 0.523
69.000 0.572
71.000 0.623
73.000 0.664
75.000 0.690
77.500 0.706
80.000 0.708
82.500 0.719
85.000 0.762
87.500 0.843
90.000 0.946
92.500 0.852
95.000 0.788
97.500 0.751
100.000 0.728
103.000 0.694
106.000 0.666
109.000 0.638
112.000 0.599
115.000 0.580
118.000 0.552
122.000 0.530
125.000 0.527
128.000 0.560
132.000 0.681
136.000 0.807
140.000 0.563
145.000 0.433
150.000 0.406
155.000 0.382
160.000 0.367
165.000 0.348
170.000 0.363
175.000 0.515
180.000 0.797
185.000 0.494
190.000 0.328
195.000 0.273
200.000 0.271
206.000 0.249
212.000 0.266
218.000 0.362
224.000 0.579
230.000 0.403
236.000 0.272
243.000 0.260
250.000 0.262
258.000 0.273
265.000 0.298
272.000 0.373
280.000 0.257
290.000 0.267
300.000 0.276
307.000 0.326
315.000 0.475
325.000 0.320
335.000 0.285
345.000 0.293
355.000 0.368
365.000 0.379
375.000 0.319
387.000 0.294
400.000 0.260
412.000 0.266
425.000 0.295
437.000 0.318
450.000 0.377
462.000 0.313
475.000 0.303
487.000 0.325
500.000 0.338
515.000 0.293
530.000 0.304
545.000 0.340
560.000 0.331
580.000 0.331
600.000 0.356
615.000 0.330
630.000 0.314
650.000 0.277
670.000 0.272
690.000 0.277
710.000 0.320
730.000 0.337
750.000 0.238
775.000 0.246
800.000 0.242
825.000 0.240
850.000 0.257
875.000 0.252
900.000 0.252
925.000 0.250
950.000 0.246
975.000 0.257
1000.000 0.249
1030.000 0.254
1060.000 0.253
1090.000 0.262
1120.000 0.259
1150.000 0.254
1180.000 0.253
1220.000 0.247
1250.000 0.243
1280.000 0.239
1320.000 0.237
1360.000 0.228
1400.000 0.228
1450.000 0.218
1500.000 0.203
1550.000 0.202
1600.000 0.206
1650.000 0.204
1700.000 0.196
1750.000 0.182
1800.000 0.176
1850.000 0.188
1900.000 0.194
1950.000 0.178
2000.000 0.170
2060.000 0.144
2120.000 0.156
2180.000 0.137
2240.000 0.144
2300.000 0.136
2360.000 0.119
2430.000 0.156
2500.000 0.164
2580.000 0.157
2650.000 0.181
2720.000 0.231
2800.000 0.280
2900.000 0.332
3000.000 0.389
3070.000 0.413
3150.000 0.438
3250.000 0.412
3350.000 0.395
3450.000 0.351
3550.000 0.303
3650.000 0.279
3750.000 0.297
3870.000 0.307
4000.000 0.311
4120.000 0.305
4250.000 0.307
4370.000 0.326
4500.000 0.384
4620.000 0.405
4750.000 0.449
4870.000 0.451
5000.000 0.469
5150.000 0.528
5300.000 0.594
5450.000 0.722
5600.000 0.966
5800.000 1.14
6000.000 1.30
6150.000 1.43
6300.000 1.47
6500.000 1.11
6700.000 0.848
6900.000 0.722
7100.000 0.581
7300.000 0.511
7500.000 0.461
7750.000 0.423
8000.000 0.434
8250.000 0.443
8500.000 0.414
8750.000 0.525
9000.000 0.567
9250.000 0.652
9500.000 0.760
9750.000 0.813
